LabVIEW Measurement	
Writer_Version	2
Reader_Version	2
Separator	Tab
Decimal_Separator	.
Multi_Headings	No
X_Columns	Multi
Time_Pref	Absolute
Operator	hemal
Date	2020/01/29
Time	10:58:00.1233925819396972656
***End_of_Header***	
	
Channels	2			
Samples	1		1	
Date	2020/01/29		2020/01/29	
Time	10:58:00.1233925819396972656		10:58:00.1233925819396972656	
X_Dimension	Time		Time	
X0	0.0000000000000000E+0		0.0000000000000000E+0	
Delta_X	1.000000		1.000000	
***End_of_Header***				
X_Value	Untitled	X_Value	Untitled 1	Comment
0.000000	-0.000229	0.000000	-6.774197
71.499179	-0.000229	71.499179	-6.774197
71.599436	1.273835	71.599436	-5.499685
71.699447	1.273835	71.699447	-5.499685
71.799516	-0.000229	71.799516	-6.774197
71.898613	-0.000229	71.898613	-6.774197
72.000362	-11.466808	72.000362	-19.519318
72.100838	-59.881254	72.100838	-67.950777
72.201714	-96.829120	72.201714	-104.911628
72.302359	-123.584472	72.302359	-125.303821
72.402152	-114.666021	72.402152	-120.205773
72.502753	-101.925378	72.502753	-110.009676
72.602197	-90.458799	72.602197	-97.264555
72.701923	-82.814412	72.701923	-90.891995
72.803282	-91.732863	72.803282	-101.088092
72.903946	-90.458799	72.903946	-95.990043
73.003614	-78.992219	73.003614	-90.891995
73.103744	-77.718155	73.103744	-83.244922
73.203219	-73.895962	73.203219	-80.695898
73.302961	-72.621897	73.302961	-78.146874
73.403958	-85.362541	73.403958	-92.166507
73.503699	-76.444091	73.503699	-85.793947
73.604023	-75.170026	73.604023	-83.244922
73.704448	-72.621897	73.704448	-78.146874
73.805186	-85.362541	73.805186	-92.166507
73.905035	-82.814412	73.905035	-90.891995
74.006343	-76.444091	74.006343	-84.519434
74.106894	-84.088477	74.106894	-95.990043
74.205708	-90.458799	74.205708	-97.264555
74.306788	-68.799704	74.306788	-75.597850
74.407148	-67.525640	74.407148	-74.323338
74.506740	-53.510932	74.506740	-60.303705
74.607326	-6.370551	74.607326	-11.872245
74.708025	63.702989	74.708025	40.382751
74.807907	138.872786	74.807907	119.402500
74.908222	104.473048	74.908222	134.696645
75.007751	119.761821	75.007751	175.481032
75.107380	114.665563	75.107380	149.990791
75.207468	118.487756	75.207468	178.030057
75.308299	86.636147	75.308299	149.990791
75.407826	93.006469	75.407826	111.755428
75.508779	86.636147	75.508779	105.382867
75.607718	80.265826	75.607718	107.931892
75.707794	72.621439	75.707794	77.343601
75.807836	53.510474	75.807836	58.225920
75.908739	45.866088	75.908739	56.951408
76.007916	52.236410	76.007916	56.951408
76.108648	44.592024	76.108648	70.971041
76.207735	43.317959	76.207735	72.245553
76.307799	48.414217	76.307799	72.245553
76.407750	47.140152	76.407750	58.225920
76.508801	48.414217	76.508801	45.480799
76.607924	45.866088	76.607924	17.441533
76.708773	8.918222	76.708773	-1.676148
76.808730	-15.289001	76.808730	-25.891878
76.908727	-40.770288	76.908727	-60.303705
77.008712	-45.866546	77.008712	-56.480168
77.107851	-40.770288	77.107851	-52.656632
77.207823	-44.592482	77.207823	-56.480168
77.308378	-43.318417	77.308378	-53.931144
77.410027	-42.044353	77.410027	-53.931144
77.508580	-42.044353	77.508580	-52.656632
77.610307	-33.125902	77.610307	-43.735047
77.711118	-28.029645	77.711118	-38.636999
77.810204	-25.481516	77.810204	-33.538951
77.910905	-22.933387	77.910905	-30.989927
78.009913	-17.837130	78.009913	-24.617366
78.110426	-2.548358	78.110426	-8.048709
78.211729	3.821964	78.211729	-2.950661
78.310441	3.821964	78.310441	-0.401636
78.412391	40.769831	78.412391	48.029823
78.513175	47.140152	78.513175	79.892626
78.613140	68.799246	78.613140	78.618113
78.711474	75.169568	78.711474	73.520065
78.813157	77.717697	78.813157	77.343601
78.913416	89.184276	78.913416	77.343601
79.013946	66.251118	79.013946	67.147505
79.113954	59.880796	79.113954	68.422017
79.213961	68.799246	79.213961	90.088722
79.313680	47.140152	79.313680	50.578847
79.413128	28.029187	79.413128	40.382751
79.513955	19.110736	79.513955	31.461166
79.614959	14.014479	79.614959	22.539581
79.714831	6.370093	79.714831	2.147388
79.814824	1.273835	79.814824	-6.774197
79.915546	1.273835	79.915546	-5.499685
80.016102	-6.370551	80.016102	-15.695781
80.116652	-31.851838	80.116652	-48.833096
80.217812	-63.703447	80.217812	-89.617483
80.317983	-70.073769	80.317983	-99.813580
80.418102	-70.073769	80.418102	-101.088092
80.518772	-80.266284	80.518772	-111.284188
80.619311	-91.732863	80.619311	-126.578333
80.720707	-99.377249	80.720707	-139.323454
80.821039	-94.280992	80.821039	-121.480285
80.920643	-90.458799	80.920643	-118.931261
81.020646	-87.910670	81.020646	-112.558700
81.122304	-77.718155	81.122304	-101.088092
81.221579	-67.525640	81.221579	-84.519434
81.322804	-38.222160	81.322804	-50.107608
81.422780	-8.918680	81.422780	-15.695781
81.522599	-2.548358	81.522599	-9.323221
81.623687	-1.274293	81.623687	-8.048709
81.723033	2.547900	81.723033	-5.499685
81.822948	72.621439	81.822948	82.441650
81.923616	115.939628	81.923616	153.814327
82.022985	138.872786	82.022985	153.814327
82.122992	152.887494	82.122992	161.461399
82.222636	155.435623	82.222636	160.186887
82.322720	132.502464	82.322720	180.579081
82.424237	133.776529	82.424237	113.029940
82.523570	104.473048	82.523570	101.559331
82.625303	85.362083	82.625303	83.716162
82.725931	68.799246	82.725931	55.676896
82.825848	58.606732	82.825848	45.480799
82.925437	48.414217	82.925437	37.833726
83.026761	33.125444	83.026761	18.716045
83.126586	26.755123	83.126586	12.343485
83.226756	11.466350	83.226756	5.970924
83.326924	7.644157	83.326924	3.421900
83.425632	5.096028	83.425632	-2.950661
83.526591	-0.000229	83.526591	-6.774197
83.626783	-33.125902	83.626783	-46.284072
83.727132	-66.251576	83.727132	-85.793947
83.827975	-81.540348	83.827975	-101.088092
83.927904	-93.006927	83.927904	-117.656749
84.029135	-89.184734	84.029135	-116.382237
84.128714	-96.829120	84.128714	-127.852846
84.228155	-94.280992	84.228155	-122.754797
84.330085	-98.103185	84.330085	-126.578333
84.429414	-95.555056	84.429414	-122.754797
84.530654	-90.458799	84.530654	-110.009676
84.633115	-71.347833	84.633115	-89.617483
84.732562	-63.703447	84.732562	-78.146874
84.832967	-50.962803	84.832967	-64.127241
84.933125	-29.303709	84.933125	-38.636999
85.033122	-11.466808	85.033122	-18.244806
85.134145	-15.289001	85.134145	-23.342854
85.234406	1.273835	85.234406	-5.499685
85.335905	2.547900	85.335905	-4.225173
85.435436	67.525182	85.435436	69.696529
85.535803	128.680271	85.535803	164.010424
85.635305	154.161558	85.635305	216.265419
85.734747	156.709687	85.734747	211.167371
85.835380	137.598722	85.835380	169.108472
85.935311	137.598722	85.935311	156.363351
86.035169	127.406207	86.035169	139.794694
86.136041	103.198984	86.136041	111.755428
86.235095	76.443633	86.235095	86.265186
86.335058	52.236410	86.335058	55.676896
86.435428	47.140152	86.435428	51.853359
86.535684	44.592024	86.535684	37.833726
86.634814	38.221702	86.634814	18.716045
86.734806	24.206994	86.734806	19.990557
86.834906	17.836672	86.834906	11.068973
86.935327	15.288543	86.935327	7.245436
87.036860	8.918222	87.036860	2.147388
87.136625	-0.000229	87.136625	-6.774197
87.237082	-3.822422	87.237082	-10.597733
87.336887	-36.948095	87.336887	-47.558584
87.437315	-64.977511	87.437315	-74.323338
87.538769	-56.059061	87.538769	-79.421386
87.638710	-62.429383	87.638710	-71.774313
87.738703	-38.222160	87.738703	-57.754680
87.838676	-43.318417	87.838676	-59.029193
87.938719	-43.318417	87.938719	-53.931144
88.038724	-48.414675	88.038724	-59.029193
88.138790	-35.674031	88.138790	-45.009560
88.237825	-35.674031	88.237825	-43.735047
88.339839	-21.659323	88.339839	-27.166390
88.440240	-15.289001	88.440240	-23.342854
88.540715	-8.918680	88.540715	-16.970294
88.640615	-16.563066	88.640615	-24.617366
88.741051	-10.192744	88.741051	-18.244806
88.841094	-6.370551	88.841094	-13.146757
88.940881	-6.370551	88.940881	-13.146757
89.041063	-2.548358	89.041063	-10.597733
89.139699	8.918222	89.139699	2.147388
89.240739	31.851380	89.240739	21.265069
89.340771	-0.000229	89.340771	-6.774197
89.439575	2.547900	89.439575	-4.225173
89.540363	2.547900	89.540363	-5.499685
89.639979	-10.192744	89.639979	-19.519318
89.741093	-33.125902	89.741093	-39.911511
89.841405	-86.636605	89.841405	-101.088092
89.943114	-99.377249	89.943114	-118.931261
90.042965	-96.829120	90.042965	-95.990043
90.142951	-91.732863	90.142951	-95.990043
90.244119	-89.184734	90.244119	-101.088092
90.343820	-91.732863	90.343820	-111.284188
90.442698	-93.006927	90.442698	-107.460652
90.545092	-84.088477	90.545092	-97.264555
90.645333	-58.607190	90.645333	-70.499801
90.744646	-19.111194	90.744646	-29.715414
90.844940	-6.370551	90.844940	-15.695781
90.945321	7.644157	90.945321	9.794460
91.045790	40.769831	91.045790	45.480799
91.145667	82.813954	91.145667	83.716162
91.246357	140.146851	91.246357	129.598597
91.346392	126.132143	91.346392	134.696645
91.447247	119.761821	91.447247	123.226037
91.547260	152.887494	91.547260	165.284936
91.647334	155.435623	91.647334	192.049690
91.747632	110.843370	91.747632	185.677129
91.847651	164.354073	91.847651	198.422250
91.948478	129.954336	91.948478	170.382984
92.048459	138.872786	92.048459	152.539815
92.148674	164.354073	92.148674	183.128105
92.248645	135.050593	92.248645	119.402500
92.349787	86.636147	92.349787	95.186771
92.448582	95.554598	92.448582	91.363234
92.549037	49.688281	92.549037	58.225920
92.648788	42.043895	92.648788	44.206287
92.749428	39.495766	92.749428	44.206287
92.850080	17.836672	92.850080	11.068973
92.950985	12.740415	92.950985	0.872876
93.049835	-10.192744	93.049835	-15.695781
93.151053	-47.140610	93.151053	-53.931144
93.250750	-48.414675	93.250750	-60.303705
93.349584	-71.347833	93.349584	-83.244922
93.451109	-93.006927	93.451109	-99.813580
93.549755	-99.377249	93.549755	-111.284188
93.650622	-89.184734	93.650622	-106.186140
93.750415	-95.555056	93.750415	-111.284188
93.851065	-110.843828	93.851065	-116.382237
93.950549	-104.473506	93.950549	-117.656749
94.052403	-109.569764	94.052403	-132.950894
94.152668	-96.829120	94.152668	-112.558700
94.252588	-85.362541	94.252588	-97.264555
94.353311	-57.333125	94.353311	-64.127241
94.453613	-22.933387	94.453613	-28.440902
94.553958	-2.548358	94.553958	-11.872245
94.653884	6.370093	94.653884	-1.676148
94.753172	35.673573	94.753172	34.010190
94.853895	80.265826	94.853895	83.716162
94.953864	105.747113	94.953864	119.402500
95.053797	109.569306	95.053797	123.226037
95.154963	107.021177	95.154963	115.578964
95.254300	124.858078	95.254300	107.931892
95.354907	107.021177	95.354907	121.951525
95.454301	84.088019	95.454301	83.716162
95.555796	72.621439	95.555796	82.441650
95.655440	58.606732	95.655440	68.422017
95.757086	45.866088	95.757086	50.578847
95.856829	34.399509	95.856829	37.833726
95.956297	24.206994	95.956297	23.814093
96.055666	16.562608	96.055666	14.892509
96.156427	8.918222	96.156427	2.147388
96.257022	5.096028	96.257022	-1.676148
96.356584	-6.370551	96.356584	-11.872245
96.455495	-22.933387	96.455495	-28.440902
96.556584	-28.029645	96.556584	-37.362487
96.656921	-44.592482	96.656921	-59.029193
96.757298	-63.703447	96.757298	-71.774313
96.857545	-73.895962	96.857545	-81.970410
96.957948	-81.540348	96.957948	-89.617483
97.059846	-98.103185	97.059846	-110.009676
97.159959	-98.103185	97.159959	-113.833213
97.258577	-124.858536	97.258577	-136.774430
97.359781	-126.132601	97.359781	-139.323454
97.459857	-105.747571	97.459857	-116.382237
97.559870	-81.540348	97.559870	-97.264555
97.660052	-63.703447	97.660052	-71.774313
97.759587	-48.414675	97.759587	-57.754680
97.861256	-22.933387	97.861256	-30.989927
97.961516	-10.192744	97.961516	-16.970294
98.062120	1.273835	98.062120	-6.774197
98.162587	10.192286	98.162587	2.147388
98.262618	20.384801	98.262618	21.265069
98.363108	77.717697	98.363108	88.814210
98.462737	110.843370	98.462737	124.500549
98.562635	143.969044	98.562635	149.990791
98.663178	146.517172	98.663178	158.912375
98.764874	145.243108	98.764874	152.539815
98.864912	104.473048	98.864912	132.147621
98.963531	89.184276	98.963531	107.931892
99.065438	94.280534	99.065438	93.912259
99.165475	54.784538	99.165475	69.696529
99.266150	39.495766	99.266150	48.029823
99.365554	42.043895	99.365554	36.559214
99.465812	28.029187	99.465812	25.088606
99.566241	16.562608	99.566241	14.892509
99.667503	8.918222	99.667503	2.147388
99.768789	2.547900	99.768789	-4.225173
99.868349	-2.548358	99.868349	-8.048709
99.968537	-12.740873	99.968537	-23.342854
100.067587	-33.125902	100.067587	-43.735047
100.169312	-54.784996	100.169312	-60.303705
100.269306	-81.540348	100.269306	-87.068459
100.370696	-104.473506	100.370696	-108.735164
100.470948	-84.088477	100.470948	-94.715531
100.571455	-72.621897	100.571455	-81.970410
100.673270	-84.088477	100.673270	-93.441019
100.773642	-94.280992	100.773642	-101.088092
100.873835	-85.362541	100.873835	-92.166507
100.973451	-42.044353	100.973451	-53.931144
101.072936	-12.740873	101.072936	-23.342854
101.173746	-10.192744	101.173746	-18.244806
101.273470	-6.370551	101.273470	-9.323221
101.373339	5.096028	101.373339	-2.950661
101.473972	3.821964	101.473972	-4.225173
101.573395	7.644157	101.573395	0.872876
101.673882	39.495766	101.673882	42.931775
101.773927	95.554598	101.773927	99.010307
101.872916	138.872786	101.872916	139.794694
101.973526	142.694979	101.973526	166.559448
102.074698	129.954336	102.074698	125.775061
102.174398	95.554598	102.174398	82.441650
102.275152	50.962345	102.275152	44.206287
102.377254	48.414217	102.377254	40.382751
102.477810	28.029187	102.477810	30.186654
102.576570	17.836672	102.576570	17.441533
102.678266	12.740415	102.678266	7.245436
102.778791	8.918222	102.778791	2.147388
102.878654	14.014479	102.878654	4.696412
102.978714	10.192286	102.978714	2.147388
103.077818	-2.548358	103.077818	-6.774197
103.178692	-2.548358	103.178692	-6.774197
103.278749	-28.029645	103.278749	-38.636999
103.377691	-58.607190	103.377691	-65.401753
103.478685	-91.732863	103.478685	-98.539067
103.577806	-110.843828	103.577806	-124.029309
103.678471	-113.391957	103.678471	-132.950894
103.778549	-118.488214	103.778549	-132.950894
103.878694	-112.117893	103.878694	-117.656749
103.978467	-80.266284	103.978467	-85.793947
104.078457	-21.659323	104.078457	-30.989927
104.177676	-1.274293	104.177676	-8.048709
104.278693	7.644157	104.278693	3.421900
104.378472	2.547900	104.378472	0.872876
104.480103	2.547900	104.480103	-1.676148
