LabVIEW Measurement	
Writer_Version	2
Reader_Version	2
Separator	Tab
Decimal_Separator	.
Multi_Headings	No
X_Columns	Multi
Time_Pref	Absolute
Operator	hemal
Date	2020/01/29
Time	11:04:30.0835046768188476563
***End_of_Header***	
	
Channels	2			
Samples	1		1	
Date	2020/01/29		2020/01/29	
Time	11:04:30.0835046768188476563		11:04:30.0835046768188476563	
X_Dimension	Time		Time	
X0	0.0000000000000000E+0		0.0000000000000000E+0	
Delta_X	1.000000		1.000000	
***End_of_Header***				
X_Value	Untitled	X_Value	Untitled 1	Comment
0.000000	8.918222	0.000000	16.167021
16.014034	95.554598	16.014034	232.834077
16.114207	94.280534	16.114207	227.736028
16.214943	91.732405	16.214943	211.167371
16.314161	72.621439	16.314161	174.206520
16.415008	48.414217	16.415008	118.127988
16.515186	21.658865	16.515186	51.853359
16.615238	-0.000229	16.615238	-8.048709
16.714914	-8.918680	16.714914	-52.656632
16.815312	-17.837130	16.815312	-92.166507
16.916794	-34.399967	16.916794	-148.245039
17.015330	-49.688739	17.015330	-252.755031
17.116844	-62.429383	17.116844	-289.715881
17.216482	-54.784996	17.216482	-289.715881
17.317686	-49.688739	17.317686	-289.715881
17.418562	-44.592482	17.418562	-246.382470
17.517735	-42.044353	17.517735	-246.382470
17.619684	-35.674031	17.619684	-191.578450
17.720512	-15.289001	17.720512	-83.244922
17.822275	3.821964	17.822275	11.068973
17.922694	29.303251	17.922694	77.343601
18.023254	68.799246	18.023254	172.932008
18.123789	95.554598	18.123789	225.187004
18.223828	99.376791	18.223828	239.206637
18.323995	95.554598	18.323995	229.010540
18.425096	82.813954	18.425096	207.343835
18.525481	61.154860	18.525481	148.716278
18.627001	42.043895	18.627001	101.559331
18.727976	19.110736	18.727976	45.480799
18.826712	1.273835	18.826712	-4.225173
18.927878	-12.740873	18.927878	-69.225289
19.028007	-38.222160	19.028007	-187.754914
19.128631	-54.784996	19.128631	-289.715881
19.227613	-54.784996	19.227613	-289.715881
19.328570	-54.784996	19.328570	-289.715881
19.428567	-49.688739	19.428567	-289.715881
19.528842	-39.496224	19.528842	-224.715765
19.628470	-33.125902	19.628470	-169.911745
19.728608	-12.740873	19.728608	-73.048826
19.829192	1.273835	19.829192	-0.401636
19.928625	17.836672	19.928625	46.755311
20.029881	64.977053	20.029881	175.481032
20.130780	96.828662	20.130780	244.304685
20.229837	89.184276	20.229837	240.481149
20.329561	91.732405	20.329561	227.736028
20.430130	82.813954	20.430130	197.147738
20.530385	73.895504	20.530385	179.304569
20.630135	57.332667	20.630135	138.520182
20.729470	17.836672	20.729470	42.931775
20.830981	-5.096486	20.830981	-36.087975
20.930788	-28.029645	20.930788	-136.774430
21.030790	-45.866546	21.030790	-264.225639
21.129510	-44.592482	21.129510	-289.715881
21.231007	-50.962803	21.231007	-289.715881
21.330561	-54.784996	21.330561	-288.441369
21.430231	-49.688739	21.430231	-245.107958
21.530547	-33.125902	21.530547	-189.029426
21.630573	-21.659323	21.630573	-111.284188
21.732759	1.273835	21.732759	-4.225173
21.831514	12.740415	21.831514	32.735678
21.932494	22.932929	21.932494	60.774944
22.031370	52.236410	22.031370	139.794694
22.132750	78.991761	22.132750	208.618347
22.231340	100.650855	22.231340	251.951758
22.332324	105.747113	22.332324	258.324318
22.432778	98.102727	22.432778	243.030173
22.533122	77.717697	22.533122	183.128105
22.633218	54.784538	22.633218	134.696645
22.732952	22.932929	22.732952	53.127872
22.833462	-1.274293	22.833462	-18.244806
22.933797	-25.481516	22.933797	-115.107725
23.033618	-39.496224	23.033618	-199.225523
23.133798	-48.414675	23.133798	-288.441369
23.233948	-44.592482	23.233948	-289.715881
23.333801	-48.414675	23.333801	-289.715881
23.433990	-47.140610	23.433990	-289.715881
23.533824	-38.222160	23.533824	-228.539301
23.633821	-19.111194	23.633821	-108.735164
23.733259	-3.822422	23.733259	-28.440902
23.833765	7.644157	23.833765	23.814093
23.934244	12.740415	23.934244	35.284702
24.034988	26.755123	24.034988	72.245553
24.135083	63.702989	24.135083	179.304569
24.234890	73.895504	24.234890	206.069323
24.334420	72.621439	24.334420	202.245786
24.435622	66.251118	24.435622	188.226153
24.534704	61.154860	24.534704	161.461399
24.635131	48.414217	24.635131	130.873109
24.734767	24.206994	24.734767	62.049456
24.834332	1.273835	24.834332	-6.774197
24.936764	-8.918680	24.936764	-52.656632
25.036524	-19.111194	25.036524	-93.441019
25.136087	-38.222160	25.136087	-201.774547
25.236464	-53.510932	25.236464	-289.715881
25.337806	-43.318417	25.337806	-289.715881
25.437826	-40.770288	25.437826	-289.715881
25.537278	-36.948095	25.537278	-262.951127
25.637696	-30.577774	25.637696	-191.578450
25.736615	-5.096486	25.736615	-37.362487
25.838271	2.547900	25.838271	5.970924
25.937664	19.110736	25.937664	62.049456
26.039014	57.332667	26.039014	189.500665
26.140281	72.621439	26.140281	237.932125
26.240450	89.184276	26.240450	258.324318
26.341564	75.169568	26.341564	220.088956
26.442281	53.510474	26.442281	167.833960
26.542115	44.592024	26.542115	133.422133
26.643118	26.755123	26.643118	76.069089
26.743397	-0.000229	26.743397	-8.048709
26.843552	-11.466808	26.843552	-65.401753
26.943762	-15.289001	26.943762	-76.872362
27.043796	-31.851838	27.043796	-160.990160
27.143098	-38.222160	27.143098	-242.558934
27.243842	-42.044353	27.243842	-247.656982
27.342856	-35.674031	27.342856	-248.931494
27.443804	-33.125902	27.443804	-243.833446
27.543802	-30.577774	27.543802	-210.696132
27.643689	-21.659323	27.643689	-140.597966
27.743948	-2.548358	27.743948	-28.440902
27.843894	6.370093	27.843894	21.265069
27.943542	20.384801	27.943542	64.598480
28.043540	52.236410	28.043540	164.010424
28.143834	67.525182	28.143834	213.716395
28.243846	78.991761	28.243846	218.814444
28.344609	73.895504	28.344609	211.167371
28.445706	66.251118	28.445706	189.500665
28.547004	52.236410	28.547004	138.520182
28.645511	33.125444	28.645511	88.814210
28.746322	3.821964	28.746322	9.794460
28.846558	-10.192744	28.846558	-56.480168
28.946911	-29.303709	28.946911	-143.146991
29.047833	-42.044353	29.047833	-204.323571
29.147967	-40.770288	29.147967	-237.460886
29.248618	-44.592482	29.248618	-252.755031
29.348617	-38.222160	29.348617	-214.519668
29.447691	-38.222160	29.447691	-192.852962
29.548348	-30.577774	29.548348	-154.617599
29.647663	-17.837130	29.647663	-95.990043
29.748547	-2.548358	29.748547	-22.068342
29.848368	2.547900	29.848368	-0.401636
29.948380	11.466350	29.948380	35.284702
30.048003	26.755123	30.048003	74.794577
30.148460	71.347375	30.148460	184.402617
30.248657	84.088019	30.248657	218.814444
30.349067	80.265826	30.349067	213.716395
30.448537	70.073311	30.448537	176.755545
30.547633	53.510474	30.547633	137.245670
30.648517	34.399509	30.648517	88.814210
30.748214	5.096028	30.748214	12.343485
30.849317	-5.096486	30.849317	-30.989927
30.950012	-17.837130	30.950012	-79.421386
31.050291	-29.303709	31.050291	-129.127358
31.151010	-48.414675	31.151010	-257.853079
31.250731	-53.510932	31.250731	-279.519785
31.350277	-59.881254	31.350277	-261.676615
31.449544	-40.770288	31.449544	-215.794180
31.550522	-50.962803	31.550522	-167.362720
31.651946	-36.948095	31.651946	-121.480285
31.752303	-21.659323	31.752303	-88.342971
31.851429	-10.192744	31.851429	-50.107608
31.952531	2.547900	31.952531	-5.499685
32.053264	36.947637	32.053264	77.343601
32.153719	87.910212	32.153719	179.304569
32.254726	114.665563	32.254726	229.010540
32.354986	115.939628	32.354986	246.853710
32.454462	113.391499	32.454462	244.304685
32.555028	95.554598	32.555028	203.520298
32.654791	75.169568	32.654791	138.520182
32.754528	40.769831	32.754528	69.696529
32.855625	6.370093	32.855625	3.421900
32.955361	-11.466808	32.955361	-41.186023
33.056592	-35.674031	33.056592	-95.990043
33.157031	-40.770288	33.157031	-134.225406
33.255601	-36.948095	33.255601	-178.833329
33.357143	-61.155318	33.357143	-288.441369
33.458711	-59.881254	33.458711	-289.715881
33.557853	-62.429383	33.557853	-268.049176
33.658311	-40.770288	33.658311	-167.362720
33.758614	-12.740873	33.758614	-61.578217
33.858519	6.370093	33.858519	-1.676148
33.958718	12.740415	33.958718	23.814093
34.057676	28.029187	34.057676	46.755311
34.158613	62.428925	34.158613	110.480916
34.260047	108.295242	34.260047	220.088956
34.360691	105.747113	34.360691	232.834077
34.460835	98.102727	34.460835	216.265419
34.560754	107.021177	34.560754	212.441883
34.660818	87.910212	34.660818	166.559448
34.760894	47.140152	34.760894	84.990674
34.859646	5.096028	34.859646	0.872876
34.960523	-16.563066	34.960523	-48.833096
35.060393	-16.563066	35.060393	-60.303705
35.160579	-17.837130	35.160579	-74.323338
35.260303	-33.125902	35.260303	-106.186140
35.360360	-78.992219	35.360360	-289.715881
35.460106	-54.784996	35.460106	-289.715881
35.559792	-45.866546	35.559792	-252.755031
35.660701	-50.962803	35.660701	-223.441252
35.760579	-50.962803	35.760579	-166.088208
35.860267	-25.481516	35.860267	-90.891995
35.959922	-0.000229	35.959922	-15.695781
36.060938	11.466350	36.060938	16.167021
36.160698	33.125444	36.160698	68.422017
36.260488	68.799246	36.260488	125.775061
36.360340	81.539890	36.360340	157.637863
36.461338	99.376791	36.461338	197.147738
36.563111	86.636147	36.563111	183.128105
36.664132	68.799246	36.664132	144.892742
36.764677	54.784538	36.764677	116.853476
36.865080	36.947637	36.865080	72.245553
36.965614	12.740415	36.965614	22.539581
37.066265	-3.822422	37.066265	-22.068342
37.166474	-14.014937	37.166474	-61.578217
37.266413	-30.577774	37.266413	-107.460652
37.367143	-58.607190	37.367143	-189.029426
37.466923	-68.799704	37.466923	-288.441369
37.568527	-66.251576	37.568527	-289.715881
37.668859	-45.866546	37.668859	-238.735398
37.767679	-33.125902	37.767679	-140.597966
37.868439	-24.207452	37.868439	-79.421386
37.970538	-7.644615	37.970538	-30.989927
38.070508	5.096028	38.070508	4.696412
38.171168	22.932929	38.171168	37.833726
38.270526	48.414217	38.270526	87.539698
38.370506	84.088019	38.370506	179.304569
38.470442	98.102727	38.470442	213.716395
38.571006	99.376791	38.571006	198.422250
38.671327	90.458341	38.671327	172.932008
38.771260	67.525182	38.771260	135.971158
38.870667	39.495766	38.870667	84.990674
38.972218	15.288543	38.972218	34.010190
39.072278	6.370093	39.072278	3.421900
39.172711	-1.274293	39.172711	-15.695781
39.273268	-8.918680	39.273268	-42.460535
39.374046	-24.207452	39.374046	-85.793947
39.475241	-50.962803	39.475241	-201.774547
39.575705	-68.799704	39.575705	-284.617833
39.674921	-57.333125	39.674921	-289.715881
39.775190	-42.044353	39.775190	-289.715881
39.875315	-39.496224	39.875315	-199.225523
39.974697	-25.481516	39.974697	-87.068459
40.075532	-6.370551	40.075532	-20.793830
40.177050	-0.000229	40.177050	-5.499685
40.277594	8.918222	40.277594	7.245436
40.377887	6.370093	40.377887	2.147388
40.478014	7.644157	40.478014	11.068973
40.577384	62.428925	40.577384	134.696645
40.678135	112.117435	40.678135	236.657613
40.778830	99.376791	40.778830	213.716395
40.877800	76.443633	40.877800	165.284936
40.978345	53.510474	40.978345	115.578964
41.079118	28.029187	41.079118	54.402384
41.179303	5.096028	41.179303	0.872876
41.280303	-5.096486	41.280303	-29.715414
41.380988	-14.014937	41.380988	-64.127241
41.480793	-30.577774	41.480793	-124.029309
41.583011	-52.236868	41.583011	-284.617833
41.682655	-64.977511	41.682655	-289.715881
41.783497	-61.155318	41.783497	-289.715881
41.883728	-50.962803	41.883728	-223.441252
41.983594	-20.385259	41.983594	-101.088092
42.083572	-1.274293	42.083572	-22.068342
42.185035	2.547900	42.185035	-5.499685
42.284063	6.370093	42.284063	5.970924
42.386062	11.466350	42.386062	18.716045
42.486268	25.481058	42.486268	40.382751
42.586709	62.428925	42.586709	116.853476
42.686443	78.991761	42.686443	183.128105
42.786954	86.636147	42.786954	198.422250
42.889120	72.621439	42.889120	165.284936
42.987342	67.525182	42.987342	134.696645
43.088651	48.414217	43.088651	87.539698
43.188638	24.206994	43.188638	42.931775
43.288588	3.821964	43.288588	-0.401636
43.388552	-8.918680	43.388552	-33.538951
43.489599	-22.933387	43.489599	-71.774313
43.590091	-42.044353	43.590091	-178.833329
43.689507	-48.414675	43.689507	-257.853079
43.788627	-63.703447	43.788627	-234.911861
43.889282	-59.881254	43.889282	-232.362837
43.990655	-43.318417	43.990655	-186.480402
44.090188	-21.659323	44.090188	-98.539067
44.192050	-8.918680	44.192050	-45.009560
44.292286	2.547900	44.292286	-8.048709
44.392558	7.644157	44.392558	11.068973
44.492281	21.658865	44.492281	37.833726
44.592771	57.332667	44.592771	104.108355
44.693127	75.169568	44.693127	165.284936
44.793632	81.539890	44.793632	183.128105
44.893567	67.525182	44.893567	152.539815
44.993872	57.332667	44.993872	109.206404
45.093823	42.043895	45.093823	72.245553
45.193635	17.836672	45.193635	31.461166
45.293734	3.821964	45.293734	-2.950661
45.392577	-7.644615	45.392577	-27.166390
45.493684	-15.289001	45.493684	-55.205656
45.593806	-20.385259	45.593806	-88.342971
45.693832	-48.414675	45.693832	-190.303938
45.794200	-70.073769	45.794200	-261.676615
45.895273	-67.525640	45.895273	-259.127591
45.995339	-50.962803	45.995339	-217.068692
46.096332	-40.770288	46.096332	-177.558817
46.196242	-16.563066	46.196242	-76.872362
46.295953	1.273835	46.295953	-11.872245
