LabVIEW Measurement	
Writer_Version	2
Reader_Version	2
Separator	Tab
Decimal_Separator	.
Multi_Headings	No
X_Columns	Multi
Time_Pref	Absolute
Operator	hemal
Date	2020/01/27
Time	11:54:37.0952959060668945313
***End_of_Header***	
	
Channels	2			
Samples	1		1	
Date	2020/01/27		2020/01/27	
Time	11:54:37.0952959060668945313		11:54:37.0952959060668945313	
X_Dimension	Time		Time	
X0	0.0000000000000000E+0		0.0000000000000000E+0	
Delta_X	1.000000		1.000000	
***End_of_Header***				
X_Value	Untitled	X_Value	Untitled 1	Comment
0.000000	1.273835	0.000000	-8.048709
29.647280	25.481058	29.647280	27.637630
29.748601	28.029187	29.748601	17.441533
29.848711	33.125444	29.848711	19.990557
29.947347	25.481058	29.947347	9.794460
30.049510	16.562608	30.049510	8.519948
30.148555	26.755123	30.148555	12.343485
30.249925	20.384801	30.249925	11.068973
30.350879	12.740415	30.350879	2.147388
30.450552	17.836672	30.450552	-0.401636
30.549417	14.014479	30.549417	3.421900
30.651146	12.740415	30.651146	0.872876
30.752320	7.644157	30.752320	-5.499685
30.853548	-3.822422	30.853548	-15.695781
30.953727	-7.644615	30.953727	-33.538951
31.053632	-35.674031	31.053632	-71.774313
31.153788	-40.770288	31.153788	-85.793947
31.253428	-35.674031	31.253428	-79.421386
31.354575	-49.688739	31.354575	-93.441019
31.454850	-63.703447	31.454850	-113.833213
31.554070	-49.688739	31.554070	-103.637116
31.653903	-68.799704	31.653903	-120.205773
31.754500	-64.977511	31.754500	-121.480285
31.855598	-44.592482	31.855598	-98.539067
31.955944	-45.866546	31.955944	-87.068459
32.056105	-45.866546	32.056105	-85.793947
32.156914	-38.222160	32.156914	-84.519434
32.255816	-43.318417	32.255816	-83.244922
32.356736	-57.333125	32.356736	-97.264555
32.459094	-44.592482	32.459094	-83.244922
32.558135	-31.851838	32.558135	-74.323338
32.658273	-49.688739	32.658273	-99.813580
32.760531	-61.155318	32.760531	-111.284188
32.860908	-56.059061	32.860908	-115.107725
32.960856	-45.866546	32.960856	-101.088092
33.060645	-53.510932	33.060645	-102.362604
33.162076	-24.207452	33.162076	-55.205656
33.261085	-5.096486	33.261085	-24.617366
33.361004	-0.000229	33.361004	-10.597733
33.461980	26.755123	33.461980	14.892509
33.562451	50.962345	33.562451	27.637630
33.663002	36.947637	33.663002	39.108239
33.763421	53.510474	33.763421	41.657263
33.865550	66.251118	33.865644	51.853359
33.965861	61.154860	33.965861	42.931775
34.065662	54.784538	34.065662	37.833726
34.165110	58.606732	34.165110	36.559214
34.265685	64.977053	34.265685	41.657263
34.367939	54.784538	34.367939	32.735678
34.467287	53.510474	34.467287	23.814093
34.568531	45.866088	34.568531	23.814093
34.667248	38.221702	34.667248	21.265069
34.767999	29.303251	34.767999	16.167021
34.869023	43.317959	34.869023	22.539581
34.969394	33.125444	34.969394	14.892509
35.070470	20.384801	35.070470	8.519948
35.170699	20.384801	35.170699	5.970924
35.270107	21.658865	35.270107	5.970924
35.370556	12.740415	35.370556	3.421900
35.470896	14.014479	35.470896	2.147388
35.570776	15.288543	35.570776	0.872876
35.670461	1.273835	35.670461	-9.323221
35.771395	-10.192744	35.772151	-19.519318
35.871893	-12.740873	35.871893	-38.636999
35.971961	-34.399967	35.971961	-74.323338
36.072927	-58.607190	36.072927	-115.107725
36.174176	-71.347833	36.174176	-131.676382
36.273612	-58.607190	36.273612	-125.303821
36.374850	-68.799704	36.374850	-138.048942
36.475976	-73.895962	36.475976	-132.950894
36.577555	-85.362541	36.577555	-150.794063
36.678518	-81.540348	36.678518	-148.245039
36.779215	-68.799704	36.779215	-135.499918
36.879820	-68.799704	36.879887	-130.401870
36.978368	-64.977511	36.978368	-126.578333
37.080333	-45.866546	37.080333	-102.362604
37.180294	-44.592482	37.180294	-80.695898
37.281089	-44.592482	37.281089	-80.695898
37.381546	-17.837130	37.381546	-46.284072
37.482002	-0.000229	37.482002	-15.695781
37.582128	11.466350	37.582128	-2.950661
37.682304	11.466350	37.682304	-6.774197
37.782299	14.014479	37.782299	0.872876
37.883421	14.014479	37.883421	2.147388
37.983623	24.206994	37.983623	7.245436
38.083163	52.236410	38.083163	22.539581
38.182597	57.332667	38.182597	36.559214
38.283556	63.702989	38.283694	36.559214
38.383226	72.621439	38.383226	37.833726
38.483572	52.236410	38.483572	36.559214
38.584513	48.414217	38.584513	23.814093
38.684023	50.962345	38.684023	21.265069
38.785174	30.577316	38.785174	21.265069
38.885219	34.399509	38.885219	21.265069
38.985531	52.236410	38.985531	19.990557
39.085843	31.851380	39.085843	14.892509
39.186046	24.206994	39.186046	12.343485
39.287906	25.481058	39.287906	9.794460
39.386421	34.399509	39.386421	16.167021
39.487327	16.562608	39.487327	8.519948
39.587303	25.481058	39.587303	9.794460
39.687253	25.481058	39.687253	9.794460
39.787350	12.740415	39.787350	-0.401636
39.887360	10.192286	39.888356	-6.774197
39.989794	-8.918680	39.989794	-22.068342
40.089769	-7.644615	40.089769	-33.538951
40.189523	-26.755581	40.189523	-51.382120
40.289947	-35.674031	40.289947	-74.323338
40.390110	-30.577774	40.390110	-79.421386
40.490381	-50.962803	40.490381	-98.539067
40.591196	-59.881254	40.591196	-111.284188
40.691578	-57.333125	40.691578	-115.107725
40.791156	-63.703447	40.791156	-121.480285
40.891953	-77.718155	40.891953	-135.499918
40.991466	-54.784996	40.991466	-117.656749
41.092281	-40.770288	41.092281	-93.441019
41.193295	-35.674031	41.193295	-71.774313
41.293059	-20.385259	41.293059	-45.009560
41.393136	5.096028	41.393136	-11.872245
41.492620	-2.548358	41.492620	-13.146757
41.593524	8.918222	41.593524	-8.048709
41.694123	15.288543	41.694123	-0.401636
41.796032	24.206994	41.796032	7.245436
41.894581	21.658865	41.894581	9.794460
41.994399	30.577316	41.994399	12.343485
42.094755	44.592024	42.094755	32.735678
42.195975	42.043895	42.195975	30.186654
42.295917	45.866088	42.295917	25.088606
42.396747	43.317959	42.396747	25.088606
42.496127	20.384801	42.496127	14.892509
42.596966	30.577316	42.596966	13.617997
42.696138	28.029187	42.696138	14.892509
42.796774	16.562608	42.796774	11.068973
42.897286	16.562608	42.897876	7.245436
42.998279	26.755123	42.998279	7.245436
43.099094	17.836672	43.099094	2.147388
43.199675	10.192286	43.199675	0.872876
43.299358	15.288543	43.299358	-0.401636
43.398703	11.466350	43.398703	-4.225173
43.499411	-19.111194	43.499411	-33.538951
43.600900	-48.414675	43.600900	-88.342971
43.701046	-57.333125	43.701046	-126.578333
43.802510	-63.703447	43.802510	-130.401870
43.903401	-80.266284	43.903401	-145.696015
44.004196	-89.184734	44.004196	-145.696015
44.104313	-84.088477	44.104313	-150.794063
44.204516	-62.429383	44.204516	-126.578333
44.304991	-68.799704	44.304991	-124.029309
44.406234	-67.525640	44.406234	-130.401870
44.505516	-62.429383	44.505516	-120.205773
44.606508	-14.014937	44.606508	-37.362487
44.707402	12.740415	44.707402	0.872876
44.807334	21.658865	44.807334	4.696412
44.907766	16.562608	44.907766	2.147388
45.010114	15.288543	45.010114	2.147388
45.110785	11.466350	45.110785	0.872876
45.211296	11.466350	45.211296	2.147388
45.312397	47.140152	45.312397	30.186654
45.415006	57.332667	45.415006	30.186654
45.515285	68.799246	45.515285	42.931775
45.617762	66.251118	45.617762	35.284702
45.717181	42.043895	45.717181	19.990557
45.817190	40.769831	45.817190	19.990557
45.918554	33.125444	45.918554	12.343485
46.019477	16.562608	46.019477	4.696412
46.119102	20.384801	46.119102	7.245436
46.218734	22.932929	46.219632	5.970924
46.320621	12.740415	46.320621	2.147388
46.420747	12.740415	46.420747	3.421900
46.519853	17.836672	46.519853	3.421900
46.621027	17.836672	46.621027	3.421900
46.721676	10.192286	46.721676	-2.950661
46.821130	-24.207452	46.821130	-33.538951
46.920472	-35.674031	46.920472	-81.970410
47.021745	-44.592482	47.021745	-87.068459
47.121313	-39.496224	47.121313	-74.323338
47.223069	-30.577774	47.223069	-73.048826
47.321980	-28.029645	47.321980	-62.852729
47.421591	-39.496224	47.421591	-71.774313
47.521931	-24.207452	47.521931	-60.303705
47.623040	-12.740873	47.623040	-38.636999
47.722287	-22.933387	47.722287	-38.636999
47.823151	-10.192744	47.823151	-28.440902
47.922583	8.918222	47.922583	-4.225173
48.024175	12.740415	48.024175	4.696412
48.124287	11.466350	48.124287	3.421900
48.224239	20.384801	48.224239	4.696412
48.325972	25.481058	48.325972	11.068973
48.427217	30.577316	48.427217	28.912142
48.526302	42.043895	48.526302	23.814093
48.627345	47.140152	48.627345	27.637630
48.728643	38.221702	48.728643	25.088606
48.828136	31.851380	48.828136	9.794460
48.928982	31.851380	48.928982	16.167021
49.029824	29.303251	49.029824	9.794460
49.129375	16.562608	49.130279	4.696412
49.230152	16.562608	49.230152	2.147388
49.330292	20.384801	49.330292	2.147388
49.430313	11.466350	49.430313	-0.401636
49.530674	12.740415	49.530674	-1.676148
49.630425	7.644157	49.630425	-8.048709
49.731767	-10.192744	49.731767	-38.636999
49.831115	-38.222160	49.831115	-67.950777
49.931098	-35.674031	49.931098	-71.774313
50.031324	-34.399967	50.031324	-78.146874
50.132043	-47.140610	50.132043	-95.990043
50.233963	-59.881254	50.233963	-111.284188
50.333263	-50.962803	50.333263	-107.460652
50.433370	-33.125902	50.433370	-80.695898
50.532602	-47.140610	50.532602	-84.519434
50.634055	-34.399967	50.634055	-66.676265
50.733938	-8.918680	50.733938	-28.440902
50.834991	-3.822422	50.834991	-14.421269
50.935638	6.370093	50.935638	-6.774197
51.035869	26.755123	51.035869	7.245436
51.135974	30.577316	51.135974	16.167021
51.236758	30.577316	51.236758	21.265069
51.337869	45.866088	51.337869	17.441533
51.437335	45.866088	51.437335	22.539581
51.537824	31.851380	51.537824	14.892509
51.637227	29.303251	51.637227	17.441533
51.737466	31.851380	51.737466	16.167021
51.837314	19.110736	51.837314	3.421900
51.938905	20.384801	51.938905	7.245436
52.037938	26.755123	52.037938	9.794460
52.139582	22.932929	52.139582	9.794460
52.239314	10.192286	52.239314	3.421900
52.338398	22.932929	52.338398	4.696412
52.439302	22.932929	52.439302	5.970924
52.540404	17.836672	52.540404	5.970924
52.639607	15.288543	52.639607	2.147388
52.740514	20.384801	52.740514	5.970924
52.840702	1.273835	52.840702	-13.146757
52.939555	-33.125902	52.939555	-61.578217
53.039608	-26.755581	53.039608	-62.852729
53.140611	-25.481516	53.140611	-67.950777
53.241099	-48.414675	53.241099	-92.166507
53.341394	-45.866546	53.341394	-98.539067
53.440697	-42.044353	53.440697	-95.990043
53.542631	-56.059061	53.542631	-106.186140
53.642809	-58.607190	53.642809	-104.911628
53.743093	-42.044353	53.743093	-92.166507
53.842290	-33.125902	53.842290	-64.127241
53.943378	-22.933387	53.943378	-41.186023
54.042655	-12.740873	54.042655	-28.440902
54.143537	5.096028	54.143537	-11.872245
54.243021	11.466350	54.243021	-4.225173
54.342539	28.029187	54.342539	9.794460
54.443883	50.962345	54.443883	31.461166
54.543246	33.125444	54.543246	28.912142
54.643515	40.769831	54.643515	23.814093
54.745166	45.866088	54.745166	30.186654
54.845243	35.673573	54.845243	17.441533
54.945675	26.755123	54.945675	17.441533
55.045467	34.399509	55.045467	14.892509
55.145764	28.029187	55.145764	11.068973
55.245946	16.562608	55.245946	9.794460
55.345393	25.481058	55.345393	9.794460
55.445602	21.658865	55.445602	9.794460
55.545729	12.740415	55.545729	4.696412
55.644572	17.836672	55.644572	4.696412
55.746051	17.836672	55.746051	2.147388
55.846847	11.466350	55.846847	-2.950661
55.947068	-20.385259	55.947068	-32.264439
56.045564	-10.192744	56.045564	-37.362487
56.146235	-25.481516	56.146235	-53.931144
56.247278	-39.496224	56.247278	-74.323338
56.348293	-58.607190	56.348293	-112.558700
56.447914	-40.770288	56.447914	-106.186140
56.549292	-61.155318	56.549292	-115.107725
56.649425	-70.073769	56.649425	-122.754797
56.750431	-77.718155	56.750431	-131.676382
56.851444	-53.510932	56.851444	-110.009676
56.951882	-36.948095	56.951882	-73.048826
57.051379	-24.207452	57.051379	-38.636999
57.151454	2.547900	57.151454	-11.872245
57.250905	10.192286	57.250905	-2.950661
57.351808	7.644157	57.351808	-6.774197
57.451870	17.836672	57.451870	2.147388
57.551965	21.658865	57.551965	11.068973
57.650756	30.577316	57.650756	22.539581
57.751807	50.962345	57.751807	30.186654
57.851939	36.947637	57.851939	28.912142
57.950821	29.303251	57.950821	21.265069
58.053042	39.495766	58.053042	17.441533
58.153218	35.673573	58.153218	21.265069
58.253966	20.384801	58.253966	14.892509
58.353160	21.658865	58.353160	7.245436
58.452527	34.399509	58.452527	13.617997
58.552587	25.481058	58.552587	12.343485
58.653590	21.658865	58.653590	13.617997
58.753837	26.755123	58.753837	7.245436
58.852971	15.288543	58.852971	7.245436
58.953427	12.740415	58.953427	-2.950661
59.054482	-11.466808	59.054482	-23.342854
59.155023	-26.755581	59.155023	-66.676265
59.255222	-50.962803	59.255222	-92.166507
59.355299	-59.881254	59.355299	-116.382237
59.455146	-53.510932	59.455239	-115.107725
59.555886	-64.977511	59.555886	-122.754797
59.655587	-72.621897	59.655587	-126.578333
59.755455	-52.236868	59.755455	-113.833213
59.857142	-39.496224	59.857142	-89.617483
59.956851	-30.577774	59.956851	-59.029193
60.057428	-20.385259	60.057428	-36.087975
60.157813	7.644157	60.157813	-10.597733
60.257784	2.547900	60.257784	-8.048709
60.358847	10.192286	60.358847	-4.225173
60.460040	16.562608	60.460040	-1.676148
60.559467	21.658865	60.559467	3.421900
60.660256	22.932929	60.660256	9.794460
60.761056	38.221702	60.761056	19.990557
60.861791	48.414217	60.861791	18.716045
60.961619	38.221702	60.961619	17.441533
61.061918	31.851380	61.062787	16.167021
